SpectraSuite Data File
++++++++++++++++++++++++++++++++++++
Date: Mon Oct 13 15:13:58 PDT 2014
User: ugastro
Dark Spectrum Present: No
Reference Spectrum Present: No
Number of Sampled Component Spectra: 1
Spectrometers: USB2G5981
Integration Time (usec): 3000 (USB2G5981)
Spectra Averaged: 1 (USB2G5981)
Boxcar Smoothing: 0 (USB2G5981)
Correct for Electrical Dark: No (USB2G5981)
Strobe/Lamp Enabled: No (USB2G5981)
Correct for Detector Non-linearity: No (USB2G5981)
Correct for Stray Light: No (USB2G5981)
Number of Pixels in Processed Spectrum: 2048
>>>>>Begin Processed Spectral Data<<<<<
344.31	0.00
344.51	96.00
344.71	97.00
344.90	98.00
345.10	102.00
345.30	102.00
345.50	103.00
345.69	102.00
345.89	102.00
346.09	103.00
346.28	104.00
346.48	105.00
346.68	105.00
346.88	104.00
347.07	106.00
347.27	108.00
347.47	110.00
347.66	108.00
347.86	106.00
348.06	107.00
348.25	107.00
348.45	107.00
348.65	106.00
348.85	104.00
349.04	105.00
349.24	107.00
349.44	107.00
349.63	107.00
349.83	104.00
350.02	103.00
350.22	103.00
350.42	104.00
350.61	107.00
350.81	106.00
351.01	106.00
351.20	106.00
351.40	106.00
351.60	105.00
351.79	103.00
351.99	106.00
352.19	106.00
352.38	105.00
352.58	106.00
352.77	107.00
352.97	105.00
353.17	105.00
353.36	106.00
353.56	108.00
353.75	108.00
353.95	106.00
354.15	107.00
354.34	111.00
354.54	109.00
354.73	105.00
354.93	104.00
355.13	103.00
355.32	104.00
355.52	108.00
355.71	106.00
355.91	105.00
356.10	106.00
356.30	109.00
356.50	105.00
356.69	105.00
356.89	106.00
357.08	107.00
357.28	108.00
357.47	106.00
357.67	106.00
357.86	107.00
358.06	109.00
358.25	110.00
358.45	109.00
358.65	108.00
358.84	106.00
359.04	109.00
359.23	110.00
359.43	108.00
359.62	107.00
359.82	109.00
360.01	108.00
360.21	108.00
360.40	108.00
360.60	110.00
360.79	110.00
360.99	109.00
361.18	106.00
361.38	107.00
361.57	107.00
361.77	107.00
361.96	108.00
362.16	111.00
362.35	110.00
362.54	108.00
362.74	108.00
362.93	107.00
363.13	109.00
363.32	111.00
363.52	110.00
363.71	108.00
363.91	107.00
364.10	108.00
364.30	108.00
364.49	108.00
364.68	111.00
364.88	108.00
365.07	107.00
365.27	108.00
365.46	111.00
365.66	111.00
365.85	109.00
366.04	109.00
366.24	109.00
366.43	110.00
366.63	109.00
366.82	110.00
367.01	108.00
367.21	108.00
367.40	109.00
367.60	109.00
367.79	109.00
367.98	106.00
368.18	107.00
368.37	108.00
368.56	109.00
368.76	110.00
368.95	112.00
369.15	113.00
369.34	112.00
369.53	109.00
369.73	109.00
369.92	110.00
370.11	111.00
370.31	110.00
370.50	110.00
370.69	111.00
370.89	109.00
371.08	108.00
371.27	108.00
371.47	109.00
371.66	110.00
371.85	111.00
372.05	109.00
372.24	110.00
372.43	109.00
372.63	106.00
372.82	107.00
373.01	111.00
373.21	109.00
373.40	107.00
373.59	108.00
373.78	110.00
373.98	112.00
374.17	113.00
374.36	113.00
374.56	112.00
374.75	110.00
374.94	107.00
375.13	106.00
375.33	109.00
375.52	111.00
375.71	110.00
375.91	109.00
376.10	111.00
376.29	114.00
376.48	112.00
376.68	112.00
376.87	107.00
377.06	109.00
377.25	110.00
377.45	111.00
377.64	111.00
377.83	111.00
378.02	108.00
378.21	106.00
378.41	106.00
378.60	110.00
378.79	110.00
378.98	111.00
379.18	108.00
379.37	110.00
379.56	110.00
379.75	109.00
379.94	109.00
380.14	108.00
380.33	110.00
380.52	110.00
380.71	110.00
380.90	107.00
381.09	109.00
381.29	108.00
381.48	109.00
381.67	109.00
381.86	111.00
382.05	110.00
382.25	109.00
382.44	111.00
382.63	109.00
382.82	110.00
383.01	109.00
383.20	109.00
383.39	110.00
383.59	108.00
383.78	109.00
383.97	111.00
384.16	114.00
384.35	110.00
384.54	111.00
384.73	112.00
384.92	111.00
385.12	111.00
385.31	111.00
385.50	111.00
385.69	112.00
385.88	112.00
386.07	110.00
386.26	110.00
386.45	108.00
386.64	109.00
386.84	110.00
387.03	112.00
387.22	111.00
387.41	112.00
387.60	113.00
387.79	113.00
387.98	110.00
388.17	110.00
388.36	108.00
388.55	108.00
388.74	110.00
388.93	112.00
389.12	111.00
389.31	110.00
389.51	111.00
389.70	111.00
389.89	112.00
390.08	111.00
390.27	108.00
390.46	108.00
390.65	109.00
390.84	110.00
391.03	109.00
391.22	109.00
391.41	109.00
391.60	109.00
391.79	110.00
391.98	112.00
392.17	109.00
392.36	107.00
392.55	109.00
392.74	110.00
392.93	110.00
393.12	109.00
393.31	109.00
393.50	111.00
393.69	110.00
393.88	108.00
394.07	108.00
394.26	111.00
394.45	114.00
394.64	113.00
394.83	109.00
395.02	109.00
395.21	111.00
395.40	113.00
395.59	111.00
395.77	107.00
395.96	109.00
396.15	110.00
396.34	109.00
396.53	109.00
396.72	108.00
396.91	112.00
397.10	114.00
397.29	112.00
397.48	112.00
397.67	112.00
397.86	110.00
398.05	110.00
398.24	111.00
398.43	113.00
398.61	109.00
398.80	108.00
398.99	109.00
399.18	109.00
399.37	108.00
399.56	107.00
399.75	106.00
399.94	108.00
400.13	107.00
400.31	106.00
400.50	109.00
400.69	112.00
400.88	110.00
401.07	109.00
401.26	109.00
401.45	109.00
401.64	109.00
401.82	108.00
402.01	107.00
402.20	109.00
402.39	111.00
402.58	110.00
402.77	108.00
402.95	108.00
403.14	110.00
403.33	113.00
403.52	113.00
403.71	110.00
403.90	111.00
404.08	110.00
404.27	109.00
404.46	109.00
404.65	111.00
404.84	112.00
405.02	111.00
405.21	111.00
405.40	108.00
405.59	110.00
405.78	109.00
405.96	110.00
406.15	109.00
406.34	111.00
406.53	111.00
406.72	111.00
406.90	112.00
407.09	113.00
407.28	110.00
407.47	109.00
407.65	107.00
407.84	108.00
408.03	110.00
408.22	110.00
408.40	107.00
408.59	107.00
408.78	106.00
408.97	108.00
409.15	109.00
409.34	109.00
409.53	108.00
409.72	108.00
409.90	110.00
410.09	109.00
410.28	107.00
410.47	104.00
410.65	107.00
410.84	109.00
411.03	107.00
411.21	106.00
411.40	109.00
411.59	110.00
411.78	111.00
411.96	112.00
412.15	111.00
412.34	111.00
412.52	107.00
412.71	108.00
412.90	109.00
413.08	112.00
413.27	109.00
413.46	109.00
413.64	109.00
413.83	110.00
414.02	110.00
414.20	110.00
414.39	110.00
414.58	109.00
414.76	108.00
414.95	111.00
415.14	111.00
415.32	109.00
415.51	109.00
415.69	109.00
415.88	110.00
416.07	109.00
416.25	108.00
416.44	108.00
416.63	108.00
416.81	108.00
417.00	108.00
417.18	108.00
417.37	109.00
417.56	109.00
417.74	111.00
417.93	111.00
418.11	112.00
418.30	108.00
418.49	108.00
418.67	107.00
418.86	105.00
419.04	106.00
419.23	107.00
419.42	108.00
419.60	109.00
419.79	109.00
419.97	109.00
420.16	113.00
420.34	110.00
420.53	109.00
420.72	112.00
420.90	112.00
421.09	110.00
421.27	106.00
421.46	104.00
421.64	108.00
421.83	111.00
422.01	108.00
422.20	112.00
422.38	109.00
422.57	108.00
422.75	106.00
422.94	107.00
423.12	107.00
423.31	109.00
423.49	110.00
423.68	112.00
423.86	112.00
424.05	110.00
424.23	110.00
424.42	110.00
424.60	110.00
424.79	108.00
424.97	109.00
425.16	109.00
425.34	109.00
425.53	106.00
425.71	110.00
425.90	109.00
426.08	108.00
426.27	109.00
426.45	107.00
426.64	108.00
426.82	109.00
427.01	110.00
427.19	109.00
427.38	109.00
427.56	108.00
427.74	108.00
427.93	108.00
428.11	108.00
428.30	108.00
428.48	107.00
428.67	109.00
428.85	108.00
429.03	108.00
429.22	107.00
429.40	107.00
429.59	108.00
429.77	112.00
429.95	112.00
430.14	110.00
430.32	110.00
430.51	111.00
430.69	112.00
430.87	110.00
431.06	109.00
431.24	108.00
431.43	109.00
431.61	110.00
431.79	111.00
431.98	109.00
432.16	112.00
432.34	113.00
432.53	110.00
432.71	106.00
432.90	105.00
433.08	108.00
433.26	109.00
433.45	107.00
433.63	107.00
433.81	106.00
434.00	106.00
434.18	109.00
434.36	109.00
434.55	110.00
434.73	107.00
434.91	106.00
435.10	107.00
435.28	109.00
435.46	108.00
435.65	109.00
435.83	109.00
436.01	107.00
436.20	108.00
436.38	110.00
436.56	108.00
436.74	110.00
436.93	110.00
437.11	111.00
437.29	109.00
437.48	107.00
437.66	109.00
437.84	108.00
438.02	109.00
438.21	110.00
438.39	110.00
438.57	110.00
438.75	111.00
438.94	111.00
439.12	110.00
439.30	111.00
439.48	109.00
439.67	110.00
439.85	110.00
440.03	110.00
440.21	111.00
440.40	108.00
440.58	110.00
440.76	111.00
440.94	111.00
441.13	111.00
441.31	109.00
441.49	111.00
441.67	115.00
441.85	114.00
442.04	112.00
442.22	112.00
442.40	114.00
442.58	110.00
442.76	110.00
442.95	108.00
443.13	106.00
443.31	107.00
443.49	112.00
443.67	109.00
443.86	107.00
444.04	106.00
444.22	106.00
444.40	107.00
444.58	109.00
444.76	110.00
444.95	110.00
445.13	109.00
445.31	109.00
445.49	108.00
445.67	108.00
445.85	109.00
446.04	110.00
446.22	111.00
446.40	109.00
446.58	105.00
446.76	106.00
446.94	110.00
447.12	110.00
447.30	111.00
447.49	108.00
447.67	108.00
447.85	108.00
448.03	108.00
448.21	107.00
448.39	107.00
448.57	109.00
448.75	110.00
448.93	108.00
449.12	107.00
449.30	105.00
449.48	106.00
449.66	108.00
449.84	106.00
450.02	107.00
450.20	108.00
450.38	110.00
450.56	112.00
450.74	112.00
450.92	111.00
451.10	111.00
451.28	109.00
451.46	110.00
451.64	107.00
451.83	106.00
452.01	108.00
452.19	108.00
452.37	106.00
452.55	107.00
452.73	109.00
452.91	108.00
453.09	110.00
453.27	111.00
453.45	109.00
453.63	108.00
453.81	108.00
453.99	108.00
454.17	106.00
454.35	106.00
454.53	108.00
454.71	108.00
454.89	108.00
455.07	107.00
455.25	107.00
455.43	106.00
455.61	108.00
455.79	109.00
455.97	109.00
456.15	108.00
456.33	107.00
456.51	109.00
456.69	108.00
456.87	107.00
457.05	105.00
457.23	106.00
457.41	107.00
457.59	106.00
457.76	106.00
457.94	107.00
458.12	106.00
458.30	110.00
458.48	111.00
458.66	111.00
458.84	112.00
459.02	109.00
459.20	107.00
459.38	107.00
459.56	110.00
459.74	111.00
459.92	113.00
460.10	112.00
460.27	108.00
460.45	107.00
460.63	108.00
460.81	110.00
460.99	110.00
461.17	110.00
461.35	109.00
461.53	109.00
461.71	111.00
461.88	108.00
462.06	106.00
462.24	107.00
462.42	109.00
462.60	108.00
462.78	109.00
462.96	108.00
463.14	109.00
463.31	109.00
463.49	107.00
463.67	106.00
463.85	107.00
464.03	110.00
464.21	111.00
464.38	110.00
464.56	111.00
464.74	111.00
464.92	108.00
465.10	108.00
465.28	108.00
465.45	108.00
465.63	108.00
465.81	106.00
465.99	106.00
466.17	109.00
466.35	110.00
466.52	108.00
466.70	107.00
466.88	105.00
467.06	109.00
467.24	107.00
467.41	107.00
467.59	105.00
467.77	106.00
467.95	110.00
468.12	110.00
468.30	109.00
468.48	109.00
468.66	109.00
468.84	108.00
469.01	110.00
469.19	109.00
469.37	108.00
469.55	110.00
469.72	108.00
469.90	106.00
470.08	107.00
470.26	106.00
470.43	107.00
470.61	107.00
470.79	107.00
470.96	106.00
471.14	107.00
471.32	107.00
471.50	108.00
471.67	107.00
471.85	107.00
472.03	108.00
472.20	109.00
472.38	110.00
472.56	109.00
472.74	110.00
472.91	110.00
473.09	110.00
473.27	110.00
473.44	109.00
473.62	111.00
473.80	112.00
473.97	109.00
474.15	109.00
474.33	108.00
474.50	107.00
474.68	107.00
474.86	108.00
475.03	108.00
475.21	108.00
475.39	106.00
475.56	107.00
475.74	105.00
475.92	104.00
476.09	107.00
476.27	108.00
476.45	106.00
476.62	105.00
476.80	104.00
476.97	105.00
477.15	106.00
477.33	109.00
477.50	110.00
477.68	110.00
477.86	109.00
478.03	110.00
478.21	106.00
478.38	107.00
478.56	106.00
478.74	107.00
478.91	109.00
479.09	108.00
479.26	107.00
479.44	105.00
479.62	105.00
479.79	107.00
479.97	107.00
480.14	107.00
480.32	107.00
480.49	106.00
480.67	105.00
480.85	105.00
481.02	104.00
481.20	106.00
481.37	106.00
481.55	107.00
481.72	108.00
481.90	106.00
482.07	106.00
482.25	109.00
482.42	108.00
482.60	108.00
482.78	108.00
482.95	110.00
483.13	110.00
483.30	107.00
483.48	107.00
483.65	106.00
483.83	108.00
484.00	109.00
484.18	106.00
484.35	106.00
484.53	107.00
484.70	109.00
484.88	111.00
485.05	109.00
485.23	110.00
485.40	110.00
485.58	110.00
485.75	110.00
485.93	110.00
486.10	108.00
486.27	108.00
486.45	106.00
486.62	108.00
486.80	110.00
486.97	108.00
487.15	105.00
487.32	106.00
487.50	110.00
487.67	109.00
487.85	107.00
488.02	106.00
488.19	107.00
488.37	107.00
488.54	108.00
488.72	106.00
488.89	106.00
489.07	106.00
489.24	107.00
489.41	107.00
489.59	107.00
489.76	106.00
489.94	107.00
490.11	107.00
490.28	108.00
490.46	108.00
490.63	108.00
490.81	109.00
490.98	110.00
491.15	110.00
491.33	108.00
491.50	107.00
491.68	109.00
491.85	109.00
492.02	109.00
492.20	110.00
492.37	108.00
492.54	106.00
492.72	105.00
492.89	105.00
493.06	108.00
493.24	109.00
493.41	107.00
493.58	107.00
493.76	105.00
493.93	106.00
494.10	107.00
494.28	107.00
494.45	108.00
494.62	108.00
494.80	109.00
494.97	110.00
495.14	108.00
495.32	106.00
495.49	107.00
495.66	108.00
495.84	105.00
496.01	106.00
496.18	106.00
496.36	110.00
496.53	109.00
496.70	107.00
496.87	104.00
497.05	106.00
497.22	107.00
497.39	107.00
497.57	107.00
497.74	109.00
497.91	107.00
498.08	107.00
498.26	107.00
498.43	108.00
498.60	109.00
498.77	108.00
498.95	108.00
499.12	106.00
499.29	106.00
499.46	107.00
499.64	108.00
499.81	106.00
499.98	105.00
500.15	106.00
500.33	107.00
500.50	108.00
500.67	109.00
500.84	109.00
501.01	107.00
501.19	107.00
501.36	109.00
501.53	109.00
501.70	108.00
501.87	109.00
502.05	110.00
502.22	109.00
502.39	110.00
502.56	108.00
502.73	108.00
502.91	104.00
503.08	108.00
503.25	107.00
503.42	106.00
503.59	107.00
503.77	107.00
503.94	107.00
504.11	108.00
504.28	108.00
504.45	105.00
504.62	104.00
504.79	103.00
504.97	103.00
505.14	106.00
505.31	106.00
505.48	108.00
505.65	109.00
505.82	109.00
505.99	108.00
506.17	106.00
506.34	106.00
506.51	106.00
506.68	107.00
506.85	107.00
507.02	108.00
507.19	109.00
507.36	108.00
507.53	109.00
507.71	112.00
507.88	111.00
508.05	109.00
508.22	109.00
508.39	108.00
508.56	108.00
508.73	108.00
508.90	107.00
509.07	106.00
509.24	108.00
509.41	109.00
509.58	108.00
509.76	105.00
509.93	106.00
510.10	107.00
510.27	107.00
510.44	106.00
510.61	108.00
510.78	109.00
510.95	109.00
511.12	108.00
511.29	110.00
511.46	110.00
511.63	109.00
511.80	108.00
511.97	105.00
512.14	107.00
512.31	107.00
512.48	108.00
512.65	108.00
512.82	107.00
512.99	106.00
513.16	107.00
513.33	108.00
513.50	108.00
513.67	107.00
513.84	108.00
514.01	106.00
514.18	108.00
514.35	107.00
514.52	108.00
514.69	108.00
514.86	108.00
515.03	109.00
515.20	109.00
515.37	109.00
515.54	108.00
515.71	110.00
515.88	108.00
516.05	111.00
516.22	109.00
516.39	108.00
516.56	108.00
516.73	107.00
516.90	106.00
517.06	107.00
517.23	108.00
517.40	107.00
517.57	107.00
517.74	108.00
517.91	107.00
518.08	108.00
518.25	107.00
518.42	106.00
518.59	105.00
518.76	105.00
518.93	105.00
519.09	107.00
519.26	106.00
519.43	108.00
519.60	109.00
519.77	109.00
519.94	107.00
520.11	107.00
520.28	106.00
520.45	108.00
520.61	108.00
520.78	107.00
520.95	108.00
521.12	107.00
521.29	109.00
521.46	110.00
521.63	109.00
521.79	107.00
521.96	106.00
522.13	106.00
522.30	108.00
522.47	109.00
522.64	108.00
522.80	107.00
522.97	105.00
523.14	106.00
523.31	107.00
523.48	109.00
523.65	106.00
523.81	104.00
523.98	106.00
524.15	108.00
524.32	107.00
524.49	106.00
524.65	107.00
524.82	107.00
524.99	106.00
525.16	107.00
525.33	109.00
525.49	109.00
525.66	109.00
525.83	110.00
526.00	110.00
526.17	110.00
526.33	110.00
526.50	108.00
526.67	109.00
526.84	110.00
527.00	109.00
527.17	108.00
527.34	108.00
527.51	107.00
527.67	107.00
527.84	107.00
528.01	110.00
528.18	109.00
528.34	106.00
528.51	107.00
528.68	107.00
528.85	106.00
529.01	108.00
529.18	109.00
529.35	108.00
529.51	112.00
529.68	111.00
529.85	108.00
530.02	108.00
530.18	108.00
530.35	107.00
530.52	109.00
530.68	109.00
530.85	109.00
531.02	108.00
531.18	110.00
531.35	107.00
531.52	107.00
531.68	106.00
531.85	105.00
532.02	106.00
532.18	105.00
532.35	107.00
532.52	107.00
532.68	109.00
532.85	108.00
533.02	109.00
533.18	107.00
533.35	105.00
533.52	104.00
533.68	106.00
533.85	107.00
534.02	108.00
534.18	108.00
534.35	107.00
534.51	109.00
534.68	109.00
534.85	108.00
535.01	109.00
535.18	109.00
535.35	106.00
535.51	105.00
535.68	108.00
535.84	107.00
536.01	107.00
536.18	107.00
536.34	108.00
536.51	107.00
536.67	109.00
536.84	108.00
537.00	108.00
537.17	109.00
537.34	109.00
537.50	111.00
537.67	112.00
537.83	109.00
538.00	109.00
538.16	108.00
538.33	106.00
538.50	106.00
538.66	107.00
538.83	110.00
538.99	108.00
539.16	108.00
539.32	106.00
539.49	107.00
539.65	109.00
539.82	110.00
539.98	110.00
540.15	108.00
540.31	108.00
540.48	109.00
540.65	108.00
540.81	107.00
540.98	110.00
541.14	107.00
541.31	108.00
541.47	107.00
541.64	108.00
541.80	108.00
541.97	110.00
542.13	108.00
542.29	106.00
542.46	105.00
542.62	106.00
542.79	108.00
542.95	110.00
543.12	108.00
543.28	105.00
543.45	105.00
543.61	108.00
543.78	108.00
543.94	107.00
544.11	106.00
544.27	107.00
544.44	107.00
544.60	110.00
544.76	109.00
544.93	108.00
545.09	106.00
545.26	106.00
545.42	107.00
545.59	108.00
545.75	107.00
545.91	105.00
546.08	107.00
546.24	109.00
546.41	109.00
546.57	109.00
546.73	110.00
546.90	108.00
547.06	107.00
547.23	109.00
547.39	109.00
547.55	109.00
547.72	110.00
547.88	108.00
548.05	105.00
548.21	106.00
548.37	108.00
548.54	105.00
548.70	107.00
548.86	109.00
549.03	108.00
549.19	107.00
549.36	110.00
549.52	108.00
549.68	106.00
549.85	103.00
550.01	104.00
550.17	107.00
550.34	107.00
550.50	106.00
550.66	105.00
550.83	105.00
550.99	104.00
551.15	104.00
551.32	107.00
551.48	108.00
551.64	105.00
551.81	108.00
551.97	107.00
552.13	107.00
552.29	107.00
552.46	106.00
552.62	106.00
552.78	108.00
552.95	107.00
553.11	106.00
553.27	104.00
553.43	105.00
553.60	106.00
553.76	108.00
553.92	106.00
554.09	107.00
554.25	108.00
554.41	106.00
554.57	106.00
554.74	106.00
554.90	108.00
555.06	107.00
555.22	108.00
555.39	106.00
555.55	106.00
555.71	108.00
555.87	109.00
556.04	109.00
556.20	109.00
556.36	109.00
556.52	108.00
556.69	109.00
556.85	109.00
557.01	108.00
557.17	109.00
557.33	110.00
557.50	108.00
557.66	108.00
557.82	109.00
557.98	111.00
558.14	110.00
558.31	109.00
558.47	106.00
558.63	108.00
558.79	109.00
558.95	107.00
559.12	109.00
559.28	108.00
559.44	108.00
559.60	108.00
559.76	107.00
559.92	109.00
560.09	109.00
560.25	110.00
560.41	109.00
560.57	108.00
560.73	106.00
560.89	109.00
561.05	109.00
561.22	107.00
561.38	107.00
561.54	108.00
561.70	109.00
561.86	108.00
562.02	109.00
562.18	110.00
562.34	107.00
562.51	107.00
562.67	107.00
562.83	105.00
562.99	107.00
563.15	107.00
563.31	107.00
563.47	106.00
563.63	107.00
563.79	108.00
563.95	107.00
564.12	105.00
564.28	105.00
564.44	105.00
564.60	105.00
564.76	105.00
564.92	108.00
565.08	108.00
565.24	110.00
565.40	109.00
565.56	109.00
565.72	108.00
565.88	107.00
566.04	106.00
566.20	110.00
566.36	107.00
566.52	106.00
566.69	107.00
566.85	105.00
567.01	106.00
567.17	108.00
567.33	110.00
567.49	111.00
567.65	109.00
567.81	107.00
567.97	107.00
568.13	109.00
568.29	109.00
568.45	106.00
568.61	105.00
568.77	104.00
568.93	105.00
569.09	108.00
569.25	108.00
569.41	107.00
569.57	109.00
569.73	109.00
569.89	109.00
570.05	108.00
570.21	106.00
570.37	106.00
570.53	107.00
570.68	106.00
570.84	106.00
571.00	106.00
571.16	107.00
571.32	109.00
571.48	107.00
571.64	107.00
571.80	106.00
571.96	106.00
572.12	108.00
572.28	109.00
572.44	106.00
572.60	107.00
572.76	108.00
572.92	108.00
573.08	108.00
573.23	107.00
573.39	108.00
573.55	109.00
573.71	108.00
573.87	108.00
574.03	110.00
574.19	108.00
574.35	106.00
574.51	106.00
574.67	108.00
574.82	108.00
574.98	107.00
575.14	108.00
575.30	106.00
575.46	104.00
575.62	104.00
575.78	105.00
575.94	104.00
576.09	106.00
576.25	107.00
576.41	106.00
576.57	106.00
576.73	106.00
576.89	108.00
577.05	106.00
577.20	108.00
577.36	109.00
577.52	108.00
577.68	108.00
577.84	106.00
578.00	105.00
578.15	104.00
578.31	106.00
578.47	106.00
578.63	109.00
578.79	110.00
578.94	111.00
579.10	111.00
579.26	107.00
579.42	105.00
579.58	105.00
579.73	108.00
579.89	108.00
580.05	105.00
580.21	106.00
580.37	105.00
580.52	107.00
580.68	107.00
580.84	110.00
581.00	109.00
581.15	109.00
581.31	109.00
581.47	106.00
581.63	105.00
581.78	104.00
581.94	106.00
582.10	108.00
582.26	108.00
582.41	108.00
582.57	107.00
582.73	106.00
582.89	108.00
583.04	108.00
583.20	107.00
583.36	106.00
583.52	105.00
583.67	106.00
583.83	106.00
583.99	108.00
584.14	110.00
584.30	109.00
584.46	110.00
584.62	111.00
584.77	108.00
584.93	105.00
585.09	106.00
585.24	108.00
585.40	108.00
585.56	108.00
585.71	108.00
585.87	106.00
586.03	107.00
586.18	109.00
586.34	107.00
586.50	108.00
586.65	108.00
586.81	107.00
586.97	107.00
587.12	107.00
587.28	106.00
587.44	106.00
587.59	108.00
587.75	107.00
587.91	107.00
588.06	107.00
588.22	109.00
588.37	109.00
588.53	107.00
588.69	107.00
588.84	107.00
589.00	107.00
589.16	107.00
589.31	108.00
589.47	107.00
589.62	106.00
589.78	108.00
589.94	105.00
590.09	104.00
590.25	106.00
590.40	107.00
590.56	106.00
590.72	106.00
590.87	107.00
591.03	108.00
591.18	111.00
591.34	109.00
591.49	109.00
591.65	104.00
591.81	106.00
591.96	106.00
592.12	107.00
592.27	108.00
592.43	108.00
592.58	105.00
592.74	105.00
592.89	105.00
593.05	106.00
593.21	109.00
593.36	108.00
593.52	104.00
593.67	104.00
593.83	106.00
593.98	105.00
594.14	107.00
594.29	105.00
594.45	106.00
594.60	105.00
594.76	105.00
594.91	106.00
595.07	108.00
595.22	109.00
595.38	109.00
595.53	108.00
595.69	109.00
595.84	109.00
596.00	107.00
596.15	106.00
596.31	106.00
596.46	105.00
596.62	106.00
596.77	107.00
596.93	109.00
597.08	109.00
597.23	109.00
597.39	108.00
597.54	108.00
597.70	110.00
597.85	108.00
598.01	108.00
598.16	107.00
598.32	106.00
598.47	108.00
598.62	109.00
598.78	108.00
598.93	110.00
599.09	109.00
599.24	108.00
599.40	108.00
599.55	107.00
599.70	108.00
599.86	107.00
600.01	107.00
600.17	107.00
600.32	107.00
600.47	108.00
600.63	107.00
600.78	105.00
600.94	105.00
601.09	105.00
601.24	104.00
601.40	106.00
601.55	107.00
601.70	105.00
601.86	106.00
602.01	108.00
602.17	108.00
602.32	108.00
602.47	108.00
602.63	109.00
602.78	109.00
602.93	108.00
603.09	109.00
603.24	107.00
603.39	108.00
603.55	107.00
603.70	108.00
603.85	108.00
604.01	106.00
604.16	104.00
604.31	106.00
604.47	108.00
604.62	108.00
604.77	111.00
604.93	110.00
605.08	110.00
605.23	107.00
605.39	109.00
605.54	110.00
605.69	109.00
605.84	108.00
606.00	107.00
606.15	106.00
606.30	106.00
606.46	107.00
606.61	110.00
606.76	109.00
606.91	109.00
607.07	105.00
607.22	104.00
607.37	105.00
607.52	106.00
607.68	108.00
607.83	110.00
607.98	109.00
608.13	108.00
608.29	109.00
608.44	109.00
608.59	111.00
608.74	110.00
608.90	107.00
609.05	107.00
609.20	107.00
609.35	109.00
609.51	107.00
609.66	104.00
609.81	102.00
609.96	105.00
610.11	108.00
610.27	107.00
610.42	106.00
610.57	106.00
610.72	106.00
610.87	108.00
611.03	108.00
611.18	107.00
611.33	108.00
611.48	110.00
611.63	109.00
611.78	110.00
611.94	109.00
612.09	108.00
612.24	107.00
612.39	108.00
612.54	105.00
612.69	107.00
612.85	109.00
613.00	108.00
613.15	106.00
613.30	104.00
613.45	105.00
613.60	107.00
613.75	107.00
613.91	107.00
614.06	107.00
614.21	105.00
614.36	105.00
614.51	107.00
614.66	109.00
614.81	109.00
614.96	110.00
615.12	109.00
615.27	108.00
615.42	109.00
615.57	107.00
615.72	106.00
615.87	107.00
616.02	109.00
616.17	108.00
616.32	108.00
616.47	106.00
616.63	106.00
616.78	109.00
616.93	109.00
617.08	109.00
617.23	107.00
617.38	105.00
617.53	107.00
617.68	107.00
617.83	107.00
617.98	107.00
618.13	108.00
618.28	108.00
618.43	108.00
618.58	108.00
618.73	106.00
618.88	108.00
619.03	105.00
619.18	105.00
619.33	106.00
619.48	106.00
619.63	108.00
619.79	110.00
619.94	109.00
620.09	107.00
620.24	108.00
620.39	107.00
620.54	107.00
620.69	107.00
620.84	108.00
620.99	107.00
621.14	106.00
621.29	107.00
621.44	106.00
621.58	109.00
621.73	108.00
621.88	108.00
622.03	108.00
622.18	105.00
622.33	106.00
622.48	104.00
622.63	102.00
622.78	104.00
622.93	104.00
623.08	105.00
623.23	107.00
623.38	106.00
623.53	106.00
623.68	107.00
623.83	107.00
623.98	106.00
624.13	107.00
624.28	106.00
624.43	105.00
624.58	106.00
624.72	107.00
624.87	105.00
625.02	105.00
625.17	108.00
625.32	108.00
625.47	107.00
625.62	107.00
625.77	107.00
625.92	109.00
626.07	109.00
626.21	107.00
626.36	108.00
626.51	107.00
626.66	110.00
626.81	109.00
626.96	105.00
627.11	104.00
627.26	106.00
627.40	107.00
627.55	106.00
627.70	105.00
627.85	105.00
628.00	104.00
628.15	108.00
628.30	109.00
628.44	107.00
628.59	106.00
628.74	106.00
628.89	105.00
629.04	105.00
629.19	107.00
629.33	108.00
629.48	106.00
629.63	107.00
629.78	111.00
629.93	111.00
630.08	111.00
630.22	110.00
630.37	109.00
630.52	107.00
630.67	105.00
630.82	108.00
630.96	105.00
631.11	104.00
631.26	104.00
631.41	106.00
631.55	106.00
631.70	106.00
631.85	106.00
632.00	107.00
632.15	106.00
632.29	104.00
632.44	106.00
632.59	107.00
632.74	107.00
632.88	106.00
633.03	107.00
633.18	107.00
633.33	107.00
633.47	106.00
633.62	106.00
633.77	107.00
633.92	107.00
634.06	111.00
634.21	110.00
634.36	107.00
634.51	108.00
634.65	109.00
634.80	109.00
634.95	107.00
635.09	106.00
635.24	108.00
635.39	110.00
635.53	111.00
635.68	112.00
635.83	111.00
635.98	111.00
636.12	110.00
636.27	112.00
636.42	109.00
636.56	108.00
636.71	109.00
636.86	108.00
637.00	109.00
637.15	108.00
637.30	108.00
637.44	108.00
637.59	107.00
637.74	107.00
637.88	107.00
638.03	107.00
638.18	109.00
638.32	111.00
638.47	108.00
638.62	108.00
638.76	106.00
638.91	106.00
639.05	107.00
639.20	109.00
639.35	107.00
639.49	106.00
639.64	104.00
639.79	105.00
639.93	106.00
640.08	105.00
640.22	107.00
640.37	109.00
640.52	107.00
640.66	105.00
640.81	106.00
640.95	109.00
641.10	109.00
641.25	106.00
641.39	108.00
641.54	110.00
641.68	108.00
641.83	105.00
641.97	108.00
642.12	110.00
642.27	104.00
642.41	105.00
642.56	106.00
642.70	107.00
642.85	108.00
642.99	107.00
643.14	109.00
643.28	107.00
643.43	106.00
643.57	109.00
643.72	109.00
643.87	110.00
644.01	108.00
644.16	108.00
644.30	110.00
644.45	110.00
644.59	110.00
644.74	108.00
644.88	107.00
645.03	110.00
645.17	110.00
645.32	107.00
645.46	109.00
645.61	109.00
645.75	109.00
645.90	108.00
646.04	106.00
646.19	106.00
646.33	106.00
646.48	106.00
646.62	107.00
646.77	104.00
646.91	102.00
647.05	104.00
647.20	106.00
647.34	106.00
647.49	107.00
647.63	107.00
647.78	108.00
647.92	109.00
648.07	107.00
648.21	104.00
648.36	106.00
648.50	108.00
648.64	108.00
648.79	109.00
648.93	109.00
649.08	107.00
649.22	104.00
649.37	105.00
649.51	105.00
649.65	105.00
649.80	108.00
649.94	106.00
650.09	106.00
650.23	107.00
650.37	106.00
650.52	104.00
650.66	103.00
650.81	104.00
650.95	105.00
651.09	105.00
651.24	106.00
651.38	109.00
651.52	110.00
651.67	108.00
651.81	108.00
651.96	109.00
652.10	106.00
652.24	107.00
652.39	107.00
652.53	109.00
652.67	108.00
652.82	109.00
652.96	105.00
653.10	106.00
653.25	107.00
653.39	107.00
653.53	108.00
653.68	107.00
653.82	108.00
653.96	107.00
654.11	107.00
654.25	107.00
654.39	109.00
654.54	110.00
654.68	107.00
654.82	106.00
654.97	108.00
655.11	107.00
655.25	106.00
655.39	107.00
655.54	107.00
655.68	107.00
655.82	108.00
655.97	109.00
656.11	107.00
656.25	108.00
656.39	107.00
656.54	108.00
656.68	109.00
656.82	109.00
656.96	107.00
657.11	105.00
657.25	106.00
657.39	105.00
657.53	106.00
657.68	108.00
657.82	109.00
657.96	108.00
658.10	107.00
658.25	108.00
658.39	109.00
658.53	111.00
658.67	110.00
658.82	109.00
658.96	108.00
659.10	106.00
659.24	108.00
659.38	110.00
659.53	110.00
659.67	107.00
659.81	108.00
659.95	106.00
660.09	106.00
660.24	107.00
660.38	109.00
660.52	108.00
660.66	106.00
660.80	106.00
660.95	106.00
661.09	107.00
661.23	106.00
661.37	107.00
661.51	108.00
661.65	108.00
661.80	107.00
661.94	109.00
662.08	111.00
662.22	110.00
662.36	107.00
662.50	107.00
662.64	106.00
662.79	110.00
662.93	108.00
663.07	108.00
663.21	107.00
663.35	106.00
663.49	106.00
663.63	110.00
663.77	107.00
663.92	105.00
664.06	108.00
664.20	109.00
664.34	105.00
664.48	104.00
664.62	107.00
664.76	106.00
664.90	104.00
665.04	105.00
665.18	105.00
665.33	103.00
665.47	105.00
665.61	106.00
665.75	106.00
665.89	108.00
666.03	108.00
666.17	105.00
666.31	105.00
666.45	108.00
666.59	109.00
666.73	108.00
666.87	108.00
667.01	107.00
667.15	108.00
667.29	108.00
667.43	108.00
667.57	110.00
667.71	107.00
667.86	108.00
668.00	107.00
668.14	108.00
668.28	107.00
668.42	109.00
668.56	109.00
668.70	108.00
668.84	107.00
668.98	107.00
669.12	107.00
669.26	106.00
669.40	105.00
669.54	106.00
669.68	106.00
669.82	108.00
669.96	107.00
670.10	106.00
670.24	104.00
670.38	103.00
670.52	105.00
670.66	106.00
670.79	106.00
670.93	106.00
671.07	105.00
671.21	106.00
671.35	109.00
671.49	108.00
671.63	109.00
671.77	110.00
671.91	110.00
672.05	109.00
672.19	105.00
672.33	103.00
672.47	104.00
672.61	104.00
672.75	106.00
672.89	109.00
673.03	108.00
673.16	107.00
673.30	105.00
673.44	105.00
673.58	106.00
673.72	109.00
673.86	110.00
674.00	108.00
674.14	109.00
674.28	109.00
674.42	108.00
674.55	110.00
674.69	109.00
674.83	105.00
674.97	106.00
675.11	108.00
675.25	108.00
675.39	107.00
675.53	106.00
675.66	107.00
675.80	108.00
675.94	106.00
676.08	107.00
676.22	106.00
676.36	107.00
676.50	107.00
676.63	109.00
676.77	110.00
676.91	109.00
677.05	108.00
677.19	107.00
677.33	108.00
677.46	107.00
677.60	107.00
677.74	108.00
677.88	107.00
678.02	109.00
678.16	108.00
678.29	107.00
678.43	106.00
678.57	108.00
678.71	107.00
678.85	105.00
678.98	107.00
679.12	109.00
679.26	107.00
679.40	105.00
679.53	106.00
679.67	106.00
679.81	108.00
679.95	109.00
680.09	107.00
680.22	107.00
680.36	108.00
680.50	107.00
680.64	107.00
680.77	110.00
680.91	108.00
681.05	108.00
681.19	109.00
681.32	107.00
681.46	108.00
681.60	110.00
681.74	109.00
681.87	110.00
682.01	110.00
682.15	110.00
682.28	107.00
682.42	108.00
682.56	108.00
682.70	108.00
682.83	106.00
682.97	106.00
683.11	108.00
683.24	110.00
683.38	108.00
683.52	108.00
683.65	109.00
683.79	108.00
683.93	108.00
684.07	110.00
684.20	111.00
684.34	108.00
684.48	108.00
684.61	110.00
684.75	111.00
684.89	109.00
685.02	110.00
685.16	108.00
685.30	108.00
685.43	109.00
685.57	109.00
685.70	109.00
685.84	108.00
685.98	107.00
>>>>>End Processed Spectral Data<<<<<
